# E (eV)   ldos(E)   pdos(E)   
 -27.811  0.631E-04  0.631E-04
 -27.796  0.875E-04  0.875E-04
 -27.781  0.121E-03  0.121E-03
 -27.766  0.166E-03  0.166E-03
 -27.751  0.226E-03  0.226E-03
 -27.736  0.306E-03  0.306E-03
 -27.721  0.411E-03  0.411E-03
 -27.706  0.550E-03  0.550E-03
 -27.691  0.732E-03  0.732E-03
 -27.676  0.968E-03  0.968E-03
 -27.661  0.127E-02  0.127E-02
 -27.646  0.166E-02  0.166E-02
 -27.631  0.216E-02  0.216E-02
 -27.616  0.278E-02  0.278E-02
 -27.601  0.357E-02  0.357E-02
 -27.586  0.455E-02  0.455E-02
 -27.571  0.576E-02  0.576E-02
 -27.556  0.725E-02  0.725E-02
 -27.541  0.908E-02  0.908E-02
 -27.526  0.113E-01  0.113E-01
 -27.511  0.140E-01  0.140E-01
 -27.496  0.172E-01  0.172E-01
 -27.481  0.210E-01  0.210E-01
 -27.466  0.254E-01  0.254E-01
 -27.451  0.307E-01  0.307E-01
 -27.436  0.368E-01  0.368E-01
 -27.421  0.439E-01  0.439E-01
 -27.406  0.520E-01  0.520E-01
 -27.391  0.613E-01  0.613E-01
 -27.376  0.717E-01  0.717E-01
 -27.361  0.835E-01  0.835E-01
 -27.346  0.965E-01  0.965E-01
 -27.331  0.111E+00  0.111E+00
 -27.316  0.127E+00  0.127E+00
 -27.301  0.144E+00  0.144E+00
 -27.286  0.162E+00  0.162E+00
 -27.271  0.182E+00  0.182E+00
 -27.256  0.203E+00  0.203E+00
 -27.241  0.225E+00  0.225E+00
 -27.226  0.248E+00  0.248E+00
 -27.211  0.272E+00  0.272E+00
 -27.196  0.296E+00  0.296E+00
 -27.181  0.320E+00  0.320E+00
 -27.166  0.344E+00  0.344E+00
 -27.151  0.367E+00  0.367E+00
 -27.136  0.390E+00  0.390E+00
 -27.121  0.412E+00  0.412E+00
 -27.106  0.432E+00  0.432E+00
 -27.091  0.451E+00  0.451E+00
 -27.076  0.468E+00  0.468E+00
 -27.061  0.482E+00  0.482E+00
 -27.046  0.493E+00  0.493E+00
 -27.031  0.502E+00  0.502E+00
 -27.016  0.508E+00  0.508E+00
 -27.001  0.511E+00  0.511E+00
 -26.986  0.511E+00  0.511E+00
 -26.971  0.507E+00  0.507E+00
 -26.956  0.501E+00  0.501E+00
 -26.941  0.492E+00  0.492E+00
 -26.926  0.480E+00  0.480E+00
 -26.911  0.465E+00  0.465E+00
 -26.896  0.448E+00  0.448E+00
 -26.881  0.429E+00  0.429E+00
 -26.866  0.409E+00  0.409E+00
 -26.851  0.387E+00  0.387E+00
 -26.836  0.364E+00  0.364E+00
 -26.821  0.340E+00  0.340E+00
 -26.806  0.316E+00  0.316E+00
 -26.791  0.292E+00  0.292E+00
 -26.776  0.268E+00  0.268E+00
 -26.761  0.245E+00  0.245E+00
 -26.746  0.222E+00  0.222E+00
 -26.731  0.200E+00  0.200E+00
 -26.716  0.179E+00  0.179E+00
 -26.701  0.160E+00  0.160E+00
 -26.686  0.141E+00  0.141E+00
 -26.671  0.124E+00  0.124E+00
 -26.656  0.109E+00  0.109E+00
 -26.641  0.944E-01  0.944E-01
 -26.626  0.816E-01  0.816E-01
 -26.611  0.700E-01  0.700E-01
 -26.596  0.598E-01  0.598E-01
 -26.581  0.507E-01  0.507E-01
 -26.566  0.428E-01  0.428E-01
 -26.551  0.358E-01  0.358E-01
 -26.536  0.298E-01  0.298E-01
 -26.521  0.247E-01  0.247E-01
 -26.506  0.203E-01  0.203E-01
 -26.491  0.166E-01  0.166E-01
 -26.476  0.135E-01  0.135E-01
 -26.461  0.109E-01  0.109E-01
 -26.446  0.877E-02  0.877E-02
 -26.431  0.700E-02  0.700E-02
 -26.416  0.556E-02  0.556E-02
 -26.401  0.438E-02  0.438E-02
 -26.386  0.343E-02  0.343E-02
 -26.371  0.268E-02  0.268E-02
 -26.356  0.207E-02  0.207E-02
 -26.341  0.159E-02  0.159E-02
 -26.326  0.122E-02  0.122E-02
 -26.311  0.928E-03  0.928E-03
 -26.296  0.701E-03  0.701E-03
 -26.281  0.527E-03  0.527E-03
 -26.266  0.393E-03  0.393E-03
 -26.251  0.292E-03  0.292E-03
 -26.236  0.215E-03  0.215E-03
 -26.221  0.158E-03  0.158E-03
 -26.206  0.115E-03  0.115E-03
 -26.191  0.833E-04  0.833E-04
 -26.176  0.600E-04  0.600E-04
 -26.161  0.429E-04  0.429E-04
 -26.146  0.305E-04  0.305E-04
 -26.131  0.216E-04  0.216E-04
 -26.116  0.152E-04  0.152E-04
 -26.101  0.106E-04  0.106E-04
 -26.086  0.735E-05  0.735E-05
 -26.071  0.507E-05  0.507E-05
 -26.056  0.348E-05  0.348E-05
 -26.041  0.237E-05  0.237E-05
 -26.026  0.160E-05  0.160E-05
 -26.011  0.108E-05  0.108E-05
 -25.996  0.723E-06  0.723E-06
 -25.981  0.481E-06  0.481E-06
 -25.966  0.318E-06  0.318E-06
 -25.951  0.209E-06  0.209E-06
 -25.936  0.137E-06  0.137E-06
 -25.921  0.886E-07  0.886E-07
 -25.906  0.572E-07  0.572E-07
 -25.891  0.367E-07  0.367E-07
 -25.876  0.234E-07  0.234E-07
 -25.861  0.148E-07  0.148E-07
 -25.846  0.933E-08  0.933E-08
 -25.831  0.584E-08  0.584E-08
 -25.816  0.364E-08  0.364E-08
 -25.801  0.225E-08  0.225E-08
 -25.786  0.138E-08  0.138E-08
 -25.771  0.844E-09  0.844E-09
 -25.756  0.513E-09  0.513E-09
 -25.741  0.310E-09  0.310E-09
 -25.726  0.186E-09  0.186E-09
 -25.711  0.111E-09  0.111E-09
 -25.696  0.656E-10  0.656E-10
 -25.681  0.387E-10  0.387E-10
 -25.666  0.226E-10  0.226E-10
 -25.651  0.132E-10  0.132E-10
 -25.636  0.762E-11  0.762E-11
 -25.621  0.000E+00  0.000E+00
 -25.606  0.000E+00  0.000E+00
 -25.591  0.000E+00  0.000E+00
 -25.576  0.000E+00  0.000E+00
 -25.561  0.000E+00  0.000E+00
 -25.546  0.000E+00  0.000E+00
 -25.531  0.000E+00  0.000E+00
 -25.516  0.000E+00  0.000E+00
 -25.501  0.000E+00  0.000E+00
 -25.486  0.000E+00  0.000E+00
 -25.471  0.000E+00  0.000E+00
 -25.456  0.000E+00  0.000E+00
 -25.441  0.000E+00  0.000E+00
 -25.426  0.000E+00  0.000E+00
 -25.411  0.000E+00  0.000E+00
 -25.396  0.000E+00  0.000E+00
 -25.381  0.000E+00  0.000E+00
 -25.366  0.000E+00  0.000E+00
 -25.351  0.000E+00  0.000E+00
 -25.336  0.000E+00  0.000E+00
 -25.321  0.000E+00  0.000E+00
 -25.306  0.000E+00  0.000E+00
 -25.291  0.000E+00  0.000E+00
 -25.276  0.000E+00  0.000E+00
 -25.261  0.000E+00  0.000E+00
 -25.246  0.147E-12  0.147E-12
 -25.231  0.314E-12  0.314E-12
 -25.216  0.584E-12  0.584E-12
 -25.201  0.109E-11  0.109E-11
 -25.186  0.198E-11  0.198E-11
 -25.171  0.353E-11  0.353E-11
 -25.156  0.610E-11  0.610E-11
 -25.141  0.103E-10  0.103E-10
 -25.126  0.172E-10  0.172E-10
 -25.111  0.286E-10  0.286E-10
 -25.096  0.473E-10  0.473E-10
 -25.081  0.776E-10  0.776E-10
 -25.066  0.127E-09  0.127E-09
 -25.051  0.207E-09  0.207E-09
 -25.036  0.334E-09  0.334E-09
 -25.021  0.536E-09  0.536E-09
 -25.006  0.855E-09  0.855E-09
 -24.991  0.136E-08  0.136E-08
 -24.976  0.214E-08  0.214E-08
 -24.961  0.335E-08  0.335E-08
 -24.946  0.521E-08  0.521E-08
 -24.931  0.808E-08  0.808E-08
 -24.916  0.124E-07  0.124E-07
 -24.901  0.190E-07  0.190E-07
 -24.886  0.290E-07  0.290E-07
 -24.871  0.438E-07  0.438E-07
 -24.856  0.659E-07  0.659E-07
 -24.841  0.985E-07  0.985E-07
 -24.826  0.146E-06  0.146E-06
 -24.811  0.216E-06  0.216E-06
 -24.796  0.318E-06  0.318E-06
 -24.781  0.464E-06  0.464E-06
 -24.766  0.674E-06  0.674E-06
 -24.751  0.972E-06  0.972E-06
 -24.736  0.140E-05  0.140E-05
 -24.721  0.199E-05  0.199E-05
 -24.706  0.283E-05  0.283E-05
 -24.691  0.399E-05  0.399E-05
 -24.676  0.559E-05  0.559E-05
 -24.661  0.779E-05  0.779E-05
 -24.646  0.108E-04  0.108E-04
 -24.631  0.149E-04  0.149E-04
 -24.616  0.204E-04  0.204E-04
 -24.601  0.278E-04  0.278E-04
 -24.586  0.377E-04  0.377E-04
 -24.571  0.507E-04  0.507E-04
 -24.556  0.680E-04  0.680E-04
 -24.541  0.905E-04  0.905E-04
 -24.526  0.120E-03  0.120E-03
 -24.511  0.158E-03  0.158E-03
 -24.496  0.207E-03  0.207E-03
 -24.481  0.269E-03  0.269E-03
 -24.466  0.349E-03  0.349E-03
 -24.451  0.449E-03  0.449E-03
 -24.436  0.575E-03  0.575E-03
 -24.421  0.732E-03  0.732E-03
 -24.406  0.927E-03  0.927E-03
 -24.391  0.117E-02  0.117E-02
 -24.376  0.146E-02  0.146E-02
 -24.361  0.182E-02  0.182E-02
 -24.346  0.226E-02  0.226E-02
 -24.331  0.278E-02  0.278E-02
 -24.316  0.341E-02  0.341E-02
 -24.301  0.415E-02  0.415E-02
 -24.286  0.503E-02  0.503E-02
 -24.271  0.607E-02  0.607E-02
 -24.256  0.728E-02  0.728E-02
 -24.241  0.868E-02  0.868E-02
 -24.226  0.103E-01  0.103E-01
 -24.211  0.122E-01  0.122E-01
 -24.196  0.143E-01  0.143E-01
 -24.181  0.167E-01  0.167E-01
 -24.166  0.194E-01  0.194E-01
 -24.151  0.224E-01  0.224E-01
 -24.136  0.257E-01  0.257E-01
 -24.121  0.295E-01  0.295E-01
 -24.106  0.335E-01  0.335E-01
 -24.091  0.379E-01  0.379E-01
 -24.076  0.427E-01  0.427E-01
 -24.061  0.479E-01  0.479E-01
 -24.046  0.534E-01  0.534E-01
 -24.031  0.592E-01  0.592E-01
 -24.016  0.654E-01  0.654E-01
 -24.001  0.718E-01  0.718E-01
 -23.986  0.784E-01  0.784E-01
 -23.971  0.853E-01  0.853E-01
 -23.956  0.923E-01  0.923E-01
 -23.941  0.993E-01  0.993E-01
 -23.926  0.106E+00  0.106E+00
 -23.911  0.113E+00  0.113E+00
 -23.896  0.120E+00  0.120E+00
 -23.881  0.127E+00  0.127E+00
 -23.866  0.133E+00  0.133E+00
 -23.851  0.139E+00  0.139E+00
 -23.836  0.145E+00  0.145E+00
 -23.821  0.150E+00  0.150E+00
 -23.806  0.154E+00  0.154E+00
 -23.791  0.158E+00  0.158E+00
 -23.776  0.162E+00  0.162E+00
 -23.761  0.164E+00  0.164E+00
 -23.746  0.166E+00  0.166E+00
 -23.731  0.168E+00  0.168E+00
 -23.716  0.169E+00  0.169E+00
 -23.701  0.169E+00  0.169E+00
 -23.686  0.169E+00  0.169E+00
 -23.671  0.168E+00  0.168E+00
 -23.656  0.168E+00  0.168E+00
 -23.641  0.167E+00  0.167E+00
 -23.626  0.167E+00  0.167E+00
 -23.611  0.166E+00  0.166E+00
 -23.596  0.167E+00  0.167E+00
 -23.581  0.168E+00  0.168E+00
 -23.566  0.171E+00  0.171E+00
 -23.551  0.175E+00  0.175E+00
 -23.536  0.181E+00  0.181E+00
 -23.521  0.189E+00  0.189E+00
 -23.506  0.199E+00  0.199E+00
 -23.491  0.213E+00  0.213E+00
 -23.476  0.229E+00  0.229E+00
 -23.461  0.250E+00  0.250E+00
 -23.446  0.274E+00  0.274E+00
 -23.431  0.302E+00  0.302E+00
 -23.416  0.335E+00  0.335E+00
 -23.401  0.372E+00  0.372E+00
 -23.386  0.414E+00  0.414E+00
 -23.371  0.461E+00  0.461E+00
 -23.356  0.513E+00  0.513E+00
 -23.341  0.569E+00  0.569E+00
 -23.326  0.630E+00  0.630E+00
 -23.311  0.695E+00  0.695E+00
 -23.296  0.763E+00  0.763E+00
 -23.281  0.835E+00  0.835E+00
 -23.266  0.909E+00  0.909E+00
 -23.251  0.984E+00  0.984E+00
 -23.236  0.106E+01  0.106E+01
 -23.221  0.114E+01  0.114E+01
 -23.206  0.121E+01  0.121E+01
 -23.191  0.129E+01  0.129E+01
 -23.176  0.135E+01  0.135E+01
 -23.161  0.142E+01  0.142E+01
 -23.146  0.148E+01  0.148E+01
 -23.131  0.153E+01  0.153E+01
 -23.116  0.158E+01  0.158E+01
 -23.101  0.162E+01  0.162E+01
 -23.086  0.165E+01  0.165E+01
 -23.071  0.167E+01  0.167E+01
 -23.056  0.168E+01  0.168E+01
 -23.041  0.169E+01  0.169E+01
 -23.026  0.168E+01  0.168E+01
 -23.011  0.166E+01  0.166E+01
 -22.996  0.164E+01  0.164E+01
 -22.981  0.161E+01  0.161E+01
 -22.966  0.156E+01  0.156E+01
 -22.951  0.152E+01  0.152E+01
 -22.936  0.146E+01  0.146E+01
 -22.921  0.140E+01  0.140E+01
 -22.906  0.134E+01  0.134E+01
 -22.891  0.127E+01  0.127E+01
 -22.876  0.120E+01  0.120E+01
 -22.861  0.113E+01  0.113E+01
 -22.846  0.106E+01  0.106E+01
 -22.831  0.985E+00  0.985E+00
 -22.816  0.914E+00  0.914E+00
 -22.801  0.846E+00  0.846E+00
 -22.786  0.780E+00  0.780E+00
 -22.771  0.717E+00  0.717E+00
 -22.756  0.658E+00  0.658E+00
 -22.741  0.602E+00  0.602E+00
 -22.726  0.549E+00  0.549E+00
 -22.711  0.501E+00  0.501E+00
 -22.696  0.457E+00  0.457E+00
 -22.681  0.416E+00  0.416E+00
 -22.666  0.380E+00  0.380E+00
 -22.651  0.347E+00  0.347E+00
 -22.636  0.317E+00  0.317E+00
 -22.621  0.291E+00  0.291E+00
 -22.606  0.267E+00  0.267E+00
 -22.591  0.246E+00  0.246E+00
 -22.576  0.228E+00  0.228E+00
 -22.561  0.211E+00  0.211E+00
 -22.546  0.197E+00  0.197E+00
 -22.531  0.184E+00  0.184E+00
 -22.516  0.173E+00  0.173E+00
 -22.501  0.163E+00  0.163E+00
 -22.486  0.154E+00  0.154E+00
 -22.471  0.145E+00  0.145E+00
 -22.456  0.138E+00  0.138E+00
 -22.441  0.131E+00  0.131E+00
 -22.426  0.125E+00  0.125E+00
 -22.411  0.119E+00  0.119E+00
 -22.396  0.114E+00  0.114E+00
 -22.381  0.109E+00  0.109E+00
 -22.366  0.104E+00  0.104E+00
 -22.351  0.990E-01  0.990E-01
 -22.336  0.946E-01  0.946E-01
 -22.321  0.904E-01  0.904E-01
 -22.306  0.863E-01  0.863E-01
 -22.291  0.824E-01  0.824E-01
 -22.276  0.787E-01  0.787E-01
 -22.261  0.751E-01  0.751E-01
 -22.246  0.717E-01  0.717E-01
 -22.231  0.684E-01  0.684E-01
 -22.216  0.652E-01  0.652E-01
 -22.201  0.622E-01  0.622E-01
 -22.186  0.593E-01  0.593E-01
 -22.171  0.566E-01  0.566E-01
 -22.156  0.540E-01  0.540E-01
 -22.141  0.515E-01  0.515E-01
 -22.126  0.491E-01  0.491E-01
 -22.111  0.469E-01  0.469E-01
 -22.096  0.447E-01  0.447E-01
 -22.081  0.427E-01  0.427E-01
 -22.066  0.408E-01  0.408E-01
 -22.051  0.389E-01  0.389E-01
 -22.036  0.371E-01  0.371E-01
 -22.021  0.354E-01  0.354E-01
 -22.006  0.338E-01  0.338E-01
 -21.991  0.322E-01  0.322E-01
 -21.976  0.307E-01  0.307E-01
 -21.961  0.292E-01  0.292E-01
 -21.946  0.278E-01  0.278E-01
 -21.931  0.265E-01  0.265E-01
 -21.916  0.252E-01  0.252E-01
 -21.901  0.239E-01  0.239E-01
 -21.886  0.227E-01  0.227E-01
 -21.871  0.215E-01  0.215E-01
 -21.856  0.204E-01  0.204E-01
 -21.841  0.193E-01  0.193E-01
 -21.826  0.183E-01  0.183E-01
 -21.811  0.173E-01  0.173E-01
 -21.796  0.164E-01  0.164E-01
 -21.781  0.156E-01  0.156E-01
 -21.766  0.148E-01  0.148E-01
 -21.751  0.140E-01  0.140E-01
 -21.736  0.133E-01  0.133E-01
 -21.721  0.127E-01  0.127E-01
 -21.706  0.121E-01  0.121E-01
 -21.691  0.116E-01  0.116E-01
 -21.676  0.111E-01  0.111E-01
 -21.661  0.107E-01  0.107E-01
 -21.646  0.103E-01  0.103E-01
 -21.631  0.995E-02  0.995E-02
 -21.616  0.964E-02  0.964E-02
 -21.601  0.936E-02  0.936E-02
 -21.586  0.910E-02  0.910E-02
 -21.571  0.887E-02  0.887E-02
 -21.556  0.866E-02  0.866E-02
 -21.541  0.846E-02  0.846E-02
 -21.526  0.827E-02  0.827E-02
 -21.511  0.808E-02  0.808E-02
 -21.496  0.790E-02  0.790E-02
 -21.481  0.772E-02  0.772E-02
 -21.466  0.754E-02  0.754E-02
 -21.451  0.735E-02  0.735E-02
 -21.436  0.715E-02  0.715E-02
 -21.421  0.695E-02  0.695E-02
 -21.406  0.673E-02  0.673E-02
 -21.391  0.651E-02  0.651E-02
 -21.376  0.627E-02  0.627E-02
 -21.361  0.603E-02  0.603E-02
 -21.346  0.578E-02  0.578E-02
 -21.331  0.552E-02  0.552E-02
 -21.316  0.525E-02  0.525E-02
 -21.301  0.498E-02  0.498E-02
 -21.286  0.471E-02  0.471E-02
 -21.271  0.444E-02  0.444E-02
 -21.256  0.416E-02  0.416E-02
 -21.241  0.389E-02  0.389E-02
 -21.226  0.362E-02  0.362E-02
 -21.211  0.335E-02  0.335E-02
 -21.196  0.309E-02  0.309E-02
 -21.181  0.285E-02  0.285E-02
 -21.166  0.260E-02  0.260E-02
 -21.151  0.237E-02  0.237E-02
 -21.136  0.215E-02  0.215E-02
 -21.121  0.195E-02  0.195E-02
 -21.106  0.175E-02  0.175E-02
 -21.091  0.157E-02  0.157E-02
 -21.076  0.140E-02  0.140E-02
 -21.061  0.124E-02  0.124E-02
 -21.046  0.110E-02  0.110E-02
 -21.031  0.967E-03  0.967E-03
 -21.016  0.847E-03  0.847E-03
 -21.001  0.738E-03  0.738E-03
 -20.986  0.641E-03  0.641E-03
 -20.971  0.553E-03  0.553E-03
 -20.956  0.476E-03  0.476E-03
 -20.941  0.407E-03  0.407E-03
 -20.926  0.347E-03  0.347E-03
 -20.911  0.294E-03  0.294E-03
 -20.896  0.248E-03  0.248E-03
 -20.881  0.208E-03  0.208E-03
 -20.866  0.173E-03  0.173E-03
 -20.851  0.144E-03  0.144E-03
 -20.836  0.119E-03  0.119E-03
 -20.821  0.979E-04  0.979E-04
 -20.806  0.801E-04  0.801E-04
 -20.791  0.652E-04  0.652E-04
 -20.776  0.528E-04  0.528E-04
 -20.761  0.425E-04  0.425E-04
 -20.746  0.340E-04  0.340E-04
 -20.731  0.271E-04  0.271E-04
 -20.716  0.215E-04  0.215E-04
 -20.701  0.170E-04  0.170E-04
 -20.686  0.133E-04  0.133E-04
 -20.671  0.104E-04  0.104E-04
 -20.656  0.804E-05  0.804E-05
 -20.641  0.620E-05  0.620E-05
 -20.626  0.476E-05  0.476E-05
 -20.611  0.363E-05  0.363E-05
 -20.596  0.275E-05  0.275E-05
 -20.581  0.208E-05  0.208E-05
 -20.566  0.156E-05  0.156E-05
 -20.551  0.116E-05  0.116E-05
 -20.536  0.862E-06  0.862E-06
 -20.521  0.636E-06  0.636E-06
 -20.506  0.466E-06  0.466E-06
 -20.491  0.340E-06  0.340E-06
 -20.476  0.247E-06  0.247E-06
 -20.461  0.178E-06  0.178E-06
 -20.446  0.127E-06  0.127E-06
 -20.431  0.907E-07  0.907E-07
 -20.416  0.643E-07  0.643E-07
 -20.401  0.453E-07  0.453E-07
 -20.386  0.317E-07  0.317E-07
 -20.371  0.221E-07  0.221E-07
 -20.356  0.153E-07  0.153E-07
 -20.341  0.105E-07  0.105E-07
 -20.326  0.719E-08  0.719E-08
 -20.311  0.489E-08  0.489E-08
 -20.296  0.331E-08  0.331E-08
 -20.281  0.222E-08  0.222E-08
 -20.266  0.148E-08  0.148E-08
 -20.251  0.986E-09  0.986E-09
 -20.236  0.651E-09  0.651E-09
 -20.221  0.427E-09  0.427E-09
 -20.206  0.279E-09  0.279E-09
 -20.191  0.181E-09  0.181E-09
 -20.176  0.117E-09  0.117E-09
 -20.161  0.748E-10  0.748E-10
 -20.146  0.476E-10  0.476E-10
 -20.131  0.302E-10  0.302E-10
 -20.116  0.190E-10  0.190E-10
 -20.101  0.119E-10  0.119E-10
 -20.086  0.740E-11  0.740E-11
 -20.071  0.456E-11  0.456E-11
 -20.056  0.280E-11  0.280E-11
 -20.041  0.171E-11  0.171E-11
 -20.026  0.104E-11  0.104E-11
 -20.011  0.628E-12  0.628E-12
 -19.996  0.377E-12  0.377E-12
 -19.981  0.225E-12  0.225E-12
 -19.966  0.130E-12  0.130E-12
 -19.951  0.769E-13  0.769E-13
 -19.936  0.451E-13  0.451E-13
 -19.921  0.263E-13  0.263E-13
 -19.906  0.128E-13  0.128E-13
 -19.891  0.554E-14  0.554E-14
 -19.876  0.211E-14  0.211E-14
 -19.861  0.000E+00  0.000E+00
 -19.846  0.000E+00  0.000E+00
 -19.831  0.000E+00  0.000E+00
 -19.816  0.000E+00  0.000E+00
 -19.801  0.000E+00  0.000E+00
 -19.786  0.000E+00  0.000E+00
 -19.771  0.000E+00  0.000E+00
 -19.756  0.000E+00  0.000E+00
 -19.741  0.000E+00  0.000E+00
 -19.726  0.000E+00  0.000E+00
 -19.711  0.000E+00  0.000E+00
 -19.696  0.000E+00  0.000E+00
 -19.681  0.000E+00  0.000E+00
 -19.666  0.000E+00  0.000E+00
 -19.651  0.000E+00  0.000E+00
 -19.636  0.000E+00  0.000E+00
 -19.621  0.000E+00  0.000E+00
 -19.606  0.000E+00  0.000E+00
 -19.591  0.000E+00  0.000E+00
 -19.576  0.000E+00  0.000E+00
 -19.561  0.000E+00  0.000E+00
 -19.546  0.000E+00  0.000E+00
 -19.531  0.000E+00  0.000E+00
 -19.516  0.000E+00  0.000E+00
 -19.501  0.000E+00  0.000E+00
 -19.486  0.000E+00  0.000E+00
 -19.471  0.000E+00  0.000E+00
 -19.456  0.000E+00  0.000E+00
 -19.441  0.000E+00  0.000E+00
 -19.426  0.000E+00  0.000E+00
 -19.411  0.000E+00  0.000E+00
 -19.396  0.000E+00  0.000E+00
 -19.381  0.000E+00  0.000E+00
 -19.366  0.000E+00  0.000E+00
 -19.351  0.000E+00  0.000E+00
 -19.336  0.000E+00  0.000E+00
 -19.321  0.000E+00  0.000E+00
 -19.306  0.000E+00  0.000E+00
 -19.291  0.000E+00  0.000E+00
 -19.276  0.000E+00  0.000E+00
 -19.261  0.000E+00  0.000E+00
 -19.246  0.000E+00  0.000E+00
 -19.231  0.000E+00  0.000E+00
 -19.216  0.000E+00  0.000E+00
 -19.201  0.000E+00  0.000E+00
 -19.186  0.000E+00  0.000E+00
 -19.171  0.000E+00  0.000E+00
 -19.156  0.000E+00  0.000E+00
 -19.141  0.000E+00  0.000E+00
 -19.126  0.000E+00  0.000E+00
 -19.111  0.000E+00  0.000E+00
 -19.096  0.000E+00  0.000E+00
 -19.081  0.000E+00  0.000E+00
 -19.066  0.000E+00  0.000E+00
 -19.051  0.000E+00  0.000E+00
 -19.036  0.000E+00  0.000E+00
 -19.021  0.000E+00  0.000E+00
 -19.006  0.000E+00  0.000E+00
 -18.991  0.000E+00  0.000E+00
 -18.976  0.000E+00  0.000E+00
 -18.961  0.000E+00  0.000E+00
 -18.946  0.000E+00  0.000E+00
 -18.931  0.000E+00  0.000E+00
 -18.916  0.000E+00  0.000E+00
 -18.901  0.000E+00  0.000E+00
 -18.886  0.000E+00  0.000E+00
 -18.871  0.000E+00  0.000E+00
 -18.856  0.000E+00  0.000E+00
 -18.841  0.000E+00  0.000E+00
 -18.826  0.000E+00  0.000E+00
 -18.811  0.000E+00  0.000E+00
 -18.796  0.000E+00  0.000E+00
 -18.781  0.000E+00  0.000E+00
 -18.766  0.000E+00  0.000E+00
 -18.751  0.000E+00  0.000E+00
 -18.736  0.000E+00  0.000E+00
 -18.721  0.000E+00  0.000E+00
 -18.706  0.000E+00  0.000E+00
 -18.691  0.000E+00  0.000E+00
 -18.676  0.000E+00  0.000E+00
 -18.661  0.000E+00  0.000E+00
 -18.646  0.000E+00  0.000E+00
 -18.631  0.000E+00  0.000E+00
 -18.616  0.000E+00  0.000E+00
 -18.601  0.000E+00  0.000E+00
 -18.586  0.000E+00  0.000E+00
 -18.571  0.000E+00  0.000E+00
 -18.556  0.000E+00  0.000E+00
 -18.541  0.000E+00  0.000E+00
 -18.526  0.000E+00  0.000E+00
 -18.511  0.000E+00  0.000E+00
 -18.496  0.000E+00  0.000E+00
 -18.481  0.000E+00  0.000E+00
 -18.466  0.000E+00  0.000E+00
 -18.451  0.000E+00  0.000E+00
 -18.436  0.000E+00  0.000E+00
 -18.421  0.000E+00  0.000E+00
 -18.406  0.000E+00  0.000E+00
 -18.391  0.000E+00  0.000E+00
 -18.376  0.000E+00  0.000E+00
 -18.361  0.000E+00  0.000E+00
 -18.346  0.000E+00  0.000E+00
 -18.331  0.000E+00  0.000E+00
 -18.316  0.000E+00  0.000E+00
 -18.301  0.000E+00  0.000E+00
 -18.286  0.000E+00  0.000E+00
 -18.271  0.000E+00  0.000E+00
 -18.256  0.000E+00  0.000E+00
 -18.241  0.000E+00  0.000E+00
 -18.226  0.000E+00  0.000E+00
 -18.211  0.000E+00  0.000E+00
 -18.196  0.000E+00  0.000E+00
 -18.181  0.000E+00  0.000E+00
 -18.166  0.000E+00  0.000E+00
